# Relationship between temperature and resistivity for a 10 KOhm thermistor.
# Converted from http://www.adafruit.com/datasheets/103_3950_lookuptable.pdf
#
# temp(C) resist(kohm)
      -40        277.2
      -39        263.6
      -38        250.1
      -37        236.8
      -36        224.0
      -35        211.5
      -34        199.6
      -33        188.1
      -32        177.3
      -31        167.0
      -30        157.2
      -29        148.1
      -28        139.4
      -27        131.3
      -26        123.7
      -25        116.6
      -24        110.0
      -23        103.7
      -22        97.90
      -21        92.50
      -20        87.43
      -19        82.79
      -18        78.44
      -17        74.36
      -16        70.53
      -15        66.92
      -14        63.54
      -13        60.34
      -12        57.33
      -11        54.50
      -10        51.82
       -9        49.28
       -8        46.89
       -7        44.62
       -6        42.48
       -5        40.45
       -4        38.53
       -3        36.70
       -2        34.97
       -1        33.33
        0        31.77
        1        30.25
        2        28.82
        3        27.45
        4        26.16
        5        24.94
        6        23.77
        7        22.67
        8        21.62
        9        20.63
       10        19.68
       11        18.78
       12        17.93
       13        17.12
       14        16.35
       15        15.62
       16        14.93
       17        14.26
       18        13.63
       19        13.04
       20        12.47
       21        11.92
       22        11.41
       23        10.91
       24        10.45
       25        10.00
       26        9.575
       27        9.170
       28        8.784
       29        8.416
       30        8.064
       31        7.730
       32        7.410
       33        7.106
       34        6.815
       35        6.538
       36        6.273
       37        6.020
       38        5.778
       39        5.548
       40        5.327
       41        5.117
       42        4.915
       43        4.723
       44        4.539
       45        4.363
       46        4.195
       47        4.034
       48        3.880
       49        3.733
       50        3.592
       51        3.457
       52        3.328
       53        3.204
       54        3.086
       55        2.972
       56        2.863
       57        2.759
       58        2.659
       59        2.564
       60        2.472
       61        2.384
       62        2.299
       63        2.218
       64        2.141
       65        2.066
       66        1.994
       67        1.926
       68        1.860
       69        1.796
       70        1.735
       71        1.677
       72        1.621
       73        1.567
       74        1.515
       75        1.465
       76        1.417
       77        1.371
       78        1.326
       79        1.284
       80        1.243
       81        1.203
       82        1.165
       83        1.128
       84        1.093
       85        1.059
       86        1.027
       87       0.9955
       88       0.9654
       89       0.9363
       90       0.9083
       91       0.8812
       92       0.8550
       93       0.8297
       94       0.8052
       95       0.7816
       96       0.7587
       97       0.7366
       98       0.7152
       99       0.6945
      100       0.6744
      101       0.6558
      102       0.6376
      103       0.6199
      104       0.6026
      105       0.5858
      106       0.5694
      107       0.5535
      108       0.5380
      109       0.5229
      110       0.5083
      111       0.4941
      112       0.4803
      113       0.4669
      114       0.4539
      115       0.4412
      116       0.4290
      117       0.4171
      118       0.4055
      119       0.3944
      120       0.3835
      121       0.3730
      122       0.3628
      123       0.3530
      124       0.3434
      125       0.3341
      126       0.3253
      127       0.3167
      128       0.3083
      129       0.3002
      130       0.2924
      131       0.2848
      132       0.2774
      133       0.2702
      134       0.2633
      135       0.2565
      136       0.2500
      137       0.2437
      138       0.2375
      139       0.2316
      140       0.2258
      141       0.2202
      142       0.2148
      143       0.2095
      144       0.2044
      145       0.1994
      146       0.1946
      147       0.1900
      148       0.1855
      149       0.1811
      150       0.1769
      151       0.1728
      152       0.1688
      153       0.1650
      154       0.1612
      155       0.1576
      156       0.1541
      157       0.1507
      158       0.1474
      159       0.1441
      160       0.1410
      161       0.1379
      162       0.1350
      163       0.1321
      164       0.1293
      165       0.1265
      166       0.1239
      167       0.1213
      168       0.1187
      169       0.1163
      170       0.1139
      171       0.1115
      172       0.1092
      173       0.1070
      174       0.1048
      175       0.1027
      176       0.1006
      177       0.0986
      178       0.0966
      179       0.0947
      180       0.0928
      181       0.0909
      182       0.0891
      183       0.0873
      184       0.0856
      185       0.0839
      186       0.0822
      187       0.0806
      188       0.0790
      189       0.0774
      190       0.0759
      191       0.0743
      192       0.0729
      193       0.0714
      194       0.0700
      195       0.0686
      196       0.0672
      197       0.0658
      198       0.0645
      199       0.0631
      200       0.0619
